[HEADER]
Format	J&M ASCII Table
Comment	MF.M11.01_HPX1_dye_24mm
Date	18/02/2022 13:02:57
Order	XYY
TechType	UV
NumPoints	256
FirstX	303.56
LastX	1144.49
XType	nm
YType	Count
ZType	Idx
NumSubFile	1
Matrix	Z vs X
[LOGIN]
Name=JM
[INSTRUMENT]
Name=TIDAS S 400 VIS/NI
Detector=MMS - ASPEN 97,5 kHz
Diodearray=256 Pixel
Serial#=39059
Calibrated=2016-03-14
Range=303.56-1144.49 [nm] (F0)

SWVersion=v3.22.6 (build 0)
[CONFIG]
ChannelName=Refer
ChannelType=RawData
[PARAMETER]
It=155.00
Aver=15
Norm=0
Range=303.6-1144.5 nm
Scan=Single
[TRIGGER]
Sweep=0
Scan=0
[DIO]
DigOut=0x0000
DigIn=0x0000
[DATA]
	0
303.56	225
306.86	217.933334
310.16	217.333328
313.46	218.333328
316.76	220.333328
320.06	220.46666
323.36	222.53334
326.66	225.199997
329.97	222.933334
333.27	227.933334
336.58	231.066666
339.89	233.666672
343.19	234.666672
346.5	240.600006
349.81	243.733337
353.12	249.066666
356.43	252.066666
359.75	259
363.06	263.266663
366.37	271.666656
369.69	279.200012
373	293.600006
376.32	327.733337
379.64	398.200012
382.96	515.799988
386.28	690.266663
389.59	916.533325
392.91	1191
396.24	1509.666626
399.56	1863.133301
402.88	2252.93335
406.2	2688.866699
409.53	3176.866699
412.85	3737.333252
416.18	4375.333496
419.5	5116.333496
422.83	5963.266602
426.16	6904.799805
429.48	7945.466797
432.81	9068.333008
436.14	10244.200195
439.47	11445.266602
442.8	12665.066406
446.13	13845.333008
449.46	14948.400391
452.79	15918.599609
456.12	16750.132812
459.46	17487.333984
462.79	18148.132812
466.12	18744.533203
469.46	19332.867187
472.79	19927.732422
476.13	20569.666016
479.46	21319.933594
482.8	22134.732422
486.13	22932
489.47	23653.066406
492.8	24297.666016
496.14	24941.066406
499.48	25701.800781
502.82	26612.466797
506.15	27683.267578
509.49	28950.933594
512.83	30372.732422
516.17	31949.466797
519.51	33697.535156
522.85	35597.535156
526.19	37714.332031
529.53	40057.601562
532.87	42494.464844
536.21	44947.132812
539.55	47303.265625
542.89	49476.734375
546.23	51429.535156
549.57	53221.601562
552.91	54806.332031
556.25	56248.265625
559.6	57541.800781
562.94	58668.398437
566.28	59676.398437
569.62	60590.933594
572.96	61328.734375
576.3	61956.667969
579.65	62375.933594
582.99	62580.265625
586.33	62613.199219
589.67	62534.734375
593.01	62271.933594
596.36	61784.199219
599.7	61044.132812
603.04	60010.800781
606.38	58860.265625
609.72	57695.332031
613.07	56776.734375
616.41	56299.535156
619.75	56553.535156
623.09	57539.867187
626.43	58648.800781
629.77	59960
633.11	61336.933594
636.45	62489.265625
639.79	63238
643.13	63107.332031
646.47	62264.734375
649.81	60926.734375
653.15	59002.800781
656.49	57266.464844
659.83	55972.800781
663.17	55064
666.51	54443.398437
669.85	53989.132812
673.19	53619.867187
676.53	53245
679.86	52926.132812
683.2	52696.800781
686.54	52558.066406
689.87	52433.667969
693.21	52308.867187
696.55	52199.535156
699.88	51978.464844
703.22	51729.667969
706.55	51477.464844
709.88	51237.800781
713.22	51071.867187
716.55	50976.066406
719.88	50882.601562
723.22	50841.199219
726.55	50797.734375
729.88	50747.800781
733.21	50605
736.54	50406.132812
739.87	50074.867187
743.2	49663
746.53	49228.398437
749.86	48733.464844
753.18	48221.464844
756.51	47623.265625
759.84	47058.800781
763.16	46547.066406
766.49	46076.800781
769.81	45638.601562
773.13	45141
776.46	44552.398437
779.78	43869.199219
783.1	43080.332031
786.42	42165.199219
789.74	41129.398437
793.06	39967.800781
796.38	38717
799.7	37464.464844
803.01	36204.933594
806.33	34972.332031
809.64	33756.132812
812.96	32525.533203
816.27	31356.333984
819.58	30242
822.9	29171
826.21	28062.666016
829.52	26942.400391
832.83	25781.599609
836.14	24609
839.44	23445.333984
842.75	22299.066406
846.05	21173.867187
849.36	20106.400391
852.66	19062.466797
855.97	18053
859.27	17120.666016
862.57	16245.733398
865.87	15429.599609
869.17	14688.666992
872.46	14000.333008
875.76	13358
879.06	12781
882.35	12236.200195
885.64	11717.733398
888.94	11222.533203
892.23	10750.866211
895.52	10293.333008
898.81	9849.933594
902.09	9412.266602
905.38	8972.933594
908.67	8536.666992
911.95	8115.866699
915.23	7716.933105
918.52	7349
921.8	6999.933105
925.08	6668.133301
928.35	6342.466797
931.63	5986.200195
934.91	5600.066895
938.18	5204.733398
941.45	4837.799805
944.72	4535.200195
947.99	4283.333496
951.26	4074.533447
954.53	3884.93335
957.8	3696.133301
961.06	3514.133301
964.33	3342.666748
967.59	3184.733398
970.85	3040.266602
974.11	2911.399902
977.37	2786.266602
980.62	2658.93335
983.88	2535.06665
987.13	2399.93335
990.38	2264.800049
993.63	2128.733398
996.88	1995.06665
1000.13	1869.666626
1003.38	1747.866699
1006.62	1631.466675
1009.86	1522.733276
1013.1	1428.466675
1016.34	1338.93335
1019.58	1256.466675
1022.82	1180.400024
1026.05	1108.733276
1029.29	1045.06665
1032.52	985.533325
1035.75	926.599976
1038.98	873.666687
1042.2	824.666687
1045.43	780.533325
1048.65	739.599976
1051.87	703.266663
1055.09	666.666687
1058.31	633.866638
1061.53	599.466675
1064.74	574.666687
1067.95	551.200012
1071.16	527.666687
1074.37	507.533325
1077.58	488.733337
1080.79	471.466675
1083.99	453.600006
1087.19	437.799988
1090.39	425.866669
1093.59	416.466675
1096.78	406.133331
1099.98	400.066681
1103.17	400.266663
1106.36	402.933319
1109.55	422.066681
1112.74	461.066681
1115.92	534.200012
1119.1	660.733337
1122.28	856.266663
1125.46	1113.466675
1128.64	1386.533325
1131.81	1613.400024
1134.98	1748.06665
1138.16	1809.733276
1141.32	1831.533325
1144.49	1860.533325
CHECKSUM’Ø