[HEADER]
Format	J&M ASCII Table
Comment	MF.CAL01-Y11.01_HPX1_dye_24mm
Date	18/02/2022 15:46:32
Order	XYY
TechType	UV
NumPoints	256
FirstX	303.56
LastX	1144.49
XType	nm
YType	Count
ZType	Idx
NumSubFile	1
Matrix	Z vs X
[LOGIN]
Name=JM
[INSTRUMENT]
Name=TIDAS S 400 VIS/NI
Detector=MMS - ASPEN 97,5 kHz
Diodearray=256 Pixel
Serial#=39059
Calibrated=2016-03-14
Range=303.56-1144.49 [nm] (F0)

SWVersion=v3.22.6 (build 0)
[CONFIG]
ChannelName=Dark
ChannelType=RawData
[PARAMETER]
It=155.00
Aver=15
Norm=0
Range=303.6-1144.5 nm
Scan=Single
[TRIGGER]
Sweep=0
Scan=0
[DIO]
DigOut=0x0000
DigIn=0x0000
[DATA]
	0
303.56	182.066666
306.86	177.133331
310.16	176.333328
313.46	176.53334
316.76	178.46666
320.06	177.800003
323.36	179.066666
326.66	180.600006
329.97	176.600006
333.27	179.133331
336.58	179.46666
339.89	181
343.19	179.133331
346.5	180.199997
349.81	181
353.12	181.666672
356.43	180.800003
359.75	183.666672
363.06	181.933334
366.37	181.866669
369.69	181.800003
373	182
376.32	181.266663
379.64	181.600006
382.96	180.800003
386.28	181.933334
389.59	182.199997
392.91	181
396.24	182.133331
399.56	182.866669
402.88	182.600006
406.2	183.53334
409.53	183.666672
412.85	184.399994
416.18	183.066666
419.5	186.46666
422.83	184.933334
426.16	184.666672
429.48	186.266663
432.81	192.066666
436.14	194
439.47	193.866669
442.8	187.800003
446.13	188.333328
449.46	190.600006
452.79	191.399994
456.12	190.933334
459.46	190.066666
462.79	189.333328
466.12	190.866669
469.46	189.46666
472.79	190.199997
476.13	188.733337
479.46	191.46666
482.8	190.666672
486.13	195
489.47	196.399994
492.8	194
496.14	190.666672
499.48	190.800003
502.82	188
506.15	189.133331
509.49	189.333328
512.83	188.399994
516.17	188.133331
519.51	190.46666
522.85	189.333328
526.19	190.866669
529.53	192.600006
532.87	193.266663
536.21	200.666672
539.55	214.333328
542.89	230.066666
546.23	231.53334
549.57	216.933334
552.91	203.133331
556.25	194
559.6	191.333328
562.94	190.199997
566.28	190.600006
569.62	191.666672
572.96	191.333328
576.3	193
579.65	199.333328
582.99	199.399994
586.33	200.399994
589.67	198.666672
593.01	196.399994
596.36	193.933334
599.7	193.399994
603.04	190.133331
606.38	198.46666
609.72	208.733337
613.07	209.800003
616.41	203.733337
619.75	197.266663
623.09	193.266663
626.43	192.933334
629.77	192
633.11	192.53334
636.45	188.866669
639.79	187.933334
643.13	186.866669
646.47	186.733337
649.81	187.600006
653.15	187.600006
656.49	186.46666
659.83	186.133331
663.17	185.333328
666.51	183.733337
669.85	184.600006
673.19	186
676.53	184.600006
679.86	184.866669
683.2	186.53334
686.54	183.600006
689.87	184.733337
693.21	184.866669
696.55	184.46666
699.88	186.46666
703.22	185.199997
706.55	187.066666
709.88	186.46666
713.22	185.333328
716.55	184.333328
719.88	187.600006
723.22	184.600006
726.55	185.066666
729.88	185.399994
733.21	185.600006
736.54	185.666672
739.87	184.333328
743.2	185.666672
746.53	186.066666
749.86	186.600006
753.18	183.933334
756.51	185.666672
759.84	185.133331
763.16	184.199997
766.49	184.933334
769.81	183.800003
773.13	187.333328
776.46	185.53334
779.78	184.266663
783.1	184.666672
786.42	185
789.74	185.600006
793.06	184
796.38	182.800003
799.7	184.600006
803.01	184.666672
806.33	184.933334
809.64	184.800003
812.96	184.733337
816.27	183.399994
819.58	185.399994
822.9	185.399994
826.21	184.933334
829.52	185.199997
832.83	184.866669
836.14	186.53334
839.44	186.46666
842.75	184.399994
846.05	184.800003
849.36	184.399994
852.66	184.53334
855.97	184.133331
859.27	185.133331
862.57	187.266663
865.87	184.133331
869.17	184
872.46	185.399994
875.76	185.333328
879.06	187.199997
882.35	184.53334
885.64	186.199997
888.94	184.333328
892.23	183.933334
895.52	183.666672
898.81	185.133331
902.09	183.53334
905.38	185.133331
908.67	184.199997
911.95	185.53334
915.23	186.46666
918.52	186.53334
921.8	185.333328
925.08	185.133331
928.35	185.333328
931.63	185.733337
934.91	185.199997
938.18	184.066666
941.45	184.933334
944.72	185.46666
947.99	184.333328
951.26	186.666672
954.53	184.333328
957.8	184.133331
961.06	186.46666
964.33	184.933334
967.59	186.066666
970.85	183.733337
974.11	184
977.37	186.199997
980.62	182.733337
983.88	186.733337
987.13	184.666672
990.38	184.733337
993.63	184.933334
996.88	183.53334
1000.13	183.933334
1003.38	185.733337
1006.62	184.53334
1009.86	183.666672
1013.1	185.266663
1016.34	184.600006
1019.58	185.666672
1022.82	185.199997
1026.05	182.333328
1029.29	184
1032.52	187.399994
1035.75	185.46666
1038.98	184.866669
1042.2	183.866669
1045.43	185.133331
1048.65	184.399994
1051.87	186.933334
1055.09	185.399994
1058.31	186.066666
1061.53	183.199997
1064.74	184.933334
1067.95	184.199997
1071.16	184.866669
1074.37	183.333328
1077.58	185.399994
1080.79	185.399994
1083.99	185.933334
1087.19	184.199997
1090.39	183.866669
1093.59	185.46666
1096.78	184.133331
1099.98	183.46666
1103.17	183.53334
1106.36	181.933334
1109.55	182.066666
1112.74	182.866669
1115.92	183.866669
1119.1	181.933334
1122.28	184.066666
1125.46	182.600006
1128.64	181.199997
1131.81	181.600006
1134.98	179.133331
1138.16	181.066666
1141.32	180.133331
1144.49	179.866669
CHECKSUMç.