[HEADER]
Format	J&M ASCII Table
Comment	MF.CAL01-Y11.01_HPX1_dye_24mm
Date	18/02/2022 15:46:38
Order	XYY
TechType	UV
NumPoints	256
FirstX	303.56
LastX	1144.49
XType	nm
YType	Count
ZType	Idx
NumSubFile	1
Matrix	Z vs X
[LOGIN]
Name=JM
[INSTRUMENT]
Name=TIDAS S 400 VIS/NI
Detector=MMS - ASPEN 97,5 kHz
Diodearray=256 Pixel
Serial#=39059
Calibrated=2016-03-14
Range=303.56-1144.49 [nm] (F0)

SWVersion=v3.22.6 (build 0)
[CONFIG]
ChannelName=Refer
ChannelType=RawData
[PARAMETER]
It=155.00
Aver=15
Norm=0
Range=303.6-1144.5 nm
Scan=Single
[TRIGGER]
Sweep=0
Scan=0
[DIO]
DigOut=0x0000
DigIn=0x0000
[DATA]
	0
303.56	230
306.86	223.600006
310.16	225.53334
313.46	225.666672
316.76	228.666672
320.06	226.666672
323.36	226.800003
326.66	231.133331
329.97	229.133331
333.27	234.133331
336.58	236.133331
339.89	238.46666
343.19	240.266663
346.5	246.333328
349.81	249.333328
353.12	252.53334
356.43	255
359.75	262.333344
363.06	265.866669
366.37	274.333344
369.69	281.399994
373	294.533325
376.32	325.799988
379.64	391
382.96	495.666656
386.28	653.866638
389.59	861.133362
392.91	1112
396.24	1405.666626
399.56	1731.133301
402.88	2091.866699
406.2	2499.266602
409.53	2954.133301
412.85	3480.333252
416.18	4082.399902
419.5	4778.466797
422.83	5575.733398
426.16	6467.466797
429.48	7459
432.81	8533.466797
436.14	9663
439.47	10818
442.8	11987.533203
446.13	13135.466797
449.46	14209.333008
452.79	15167.666992
456.12	15991.599609
459.46	16721.666016
462.79	17381.199219
466.12	17979.333984
469.46	18569.867187
472.79	19172.666016
476.13	19815.132812
479.46	20562.800781
482.8	21380.867187
486.13	22188.533203
489.47	22914.800781
492.8	23571.533203
496.14	24225.867187
499.48	24993.132812
502.82	25906
506.15	26972.533203
509.49	28235.466797
512.83	29643.599609
516.17	31199.867187
519.51	32921.398437
522.85	34812.265625
526.19	36919.800781
529.53	39254.398437
532.87	41682.332031
536.21	44137.535156
539.55	46501.265625
542.89	48693.066406
546.23	50664
549.57	52484.199219
552.91	54087.066406
556.25	55542.066406
559.6	56851.734375
562.94	57993.800781
566.28	59037.601562
569.62	60006.265625
572.96	60796.535156
576.3	61467.066406
579.65	61897.332031
582.99	62117.199219
586.33	62169.933594
589.67	62134.132812
593.01	61944.867187
596.36	61546.867187
599.7	60900.398437
603.04	59959.464844
606.38	58820.132812
609.72	57526.800781
613.07	56434.800781
616.41	55850.066406
619.75	56127.734375
623.09	57222.199219
626.43	58438.800781
629.77	59867
633.11	61378.867187
636.45	62650
639.79	63520.199219
643.13	63485.066406
646.47	62661.398437
649.81	61231.199219
653.15	59138.667969
656.49	57338
659.83	56095.601562
663.17	55273.132812
666.51	54724.667969
669.85	54326
673.19	53995.933594
676.53	53640.066406
679.86	53315.132812
683.2	53076.332031
686.54	52926.800781
689.87	52804.398437
693.21	52684.535156
696.55	52573.332031
699.88	52371.667969
703.22	52157.066406
706.55	51936.066406
709.88	51738.464844
713.22	51612
716.55	51519.066406
719.88	51413.066406
723.22	51376.800781
726.55	51343.332031
729.88	51320.667969
733.21	51204.066406
736.54	50995.398437
739.87	50653.332031
743.2	50222.332031
746.53	49800.867187
749.86	49315.332031
753.18	48806.535156
756.51	48232.800781
759.84	47707.066406
763.16	47225.933594
766.49	46765.398437
769.81	46344.867187
773.13	45873.667969
776.46	45290.800781
779.78	44581.199219
783.1	43761.332031
786.42	42829.332031
789.74	41801.132812
793.06	40652.265625
796.38	39408.933594
799.7	38150
803.01	36867.265625
806.33	35610
809.64	34368.667969
812.96	33127
816.27	31953.066406
819.58	30848.599609
822.9	29760.732422
826.21	28635.933594
829.52	27481.533203
832.83	26311.933594
836.14	25118
839.44	23936.800781
842.75	22761.800781
846.05	21606.732422
849.36	20527.533203
852.66	19477.267578
855.97	18451.267578
859.27	17503.732422
862.57	16619.599609
865.87	15797.733398
869.17	15049.933594
872.46	14346.933594
875.76	13687.333008
879.06	13100.400391
882.35	12548.266602
885.64	12026
888.94	11525.799805
892.23	11043.799805
895.52	10577.599609
898.81	10118.799805
902.09	9664.133789
905.38	9212.666992
908.67	8766.666992
911.95	8335.066406
915.23	7924.533203
918.52	7546.733398
921.8	7185.666504
925.08	6847.533203
928.35	6514
931.63	6157.266602
934.91	5769.466797
938.18	5366.266602
941.45	4988.333496
944.72	4678.866699
947.99	4420.399902
951.26	4203.399902
954.53	4002.133301
957.8	3809.600098
961.06	3626.600098
964.33	3457.800049
967.59	3294.199951
970.85	3142.399902
974.11	3008
977.37	2881
980.62	2753.600098
983.88	2624.93335
987.13	2484.533447
990.38	2345
993.63	2205.800049
996.88	2066.666748
1000.13	1934.866699
1003.38	1808.333374
1006.62	1687.866699
1009.86	1577.533325
1013.1	1480.06665
1016.34	1386.533325
1019.58	1302.333374
1022.82	1223.866699
1026.05	1148.266724
1029.29	1084
1032.52	1022.266663
1035.75	960.733337
1038.98	905.866638
1042.2	855.133362
1045.43	809.733337
1048.65	767.333313
1051.87	728.533325
1055.09	691.133362
1058.31	657.466675
1061.53	622.666687
1064.74	595.799988
1067.95	571.799988
1071.16	548.533325
1074.37	526.799988
1077.58	508.600006
1080.79	488.333344
1083.99	470.799988
1087.19	455.399994
1090.39	441.733337
1093.59	432.133331
1096.78	423.133331
1099.98	415.466675
1103.17	414.200012
1106.36	418.799988
1109.55	436.200012
1112.74	476.066681
1115.92	550.266663
1119.1	677.666687
1122.28	876.266663
1125.46	1135.800049
1128.64	1407.06665
1131.81	1626.533325
1134.98	1753.466675
1138.16	1808.333374
1141.32	1830.533325
1144.49	1861.93335
CHECKSUM’«