[HEADER]
Format	J&M ASCII Table
Comment	MF.C11.01_HPX1_dye_24mm
Date	18/02/2022 14:21:59
Order	XYY
TechType	UV
NumPoints	256
FirstX	303.56
LastX	1144.49
XType	nm
YType	Count
ZType	Idx
NumSubFile	1
Matrix	Z vs X
[LOGIN]
Name=JM
[INSTRUMENT]
Name=TIDAS S 400 VIS/NI
Detector=MMS - ASPEN 97,5 kHz
Diodearray=256 Pixel
Serial#=39059
Calibrated=2016-03-14
Range=303.56-1144.49 [nm] (F0)

SWVersion=v3.22.6 (build 0)
[CONFIG]
ChannelName=Refer
ChannelType=RawData
[PARAMETER]
It=155.00
Aver=15
Norm=0
Range=303.6-1144.5 nm
Scan=Single
[TRIGGER]
Sweep=0
Scan=0
[DIO]
DigOut=0x0000
DigIn=0x0000
[DATA]
	0
303.56	222.866669
306.86	217.733337
310.16	217.46666
313.46	218.53334
316.76	220.133331
320.06	220
323.36	220.133331
326.66	225.266663
329.97	223.133331
333.27	225.333328
336.58	227.933334
339.89	232.933334
343.19	233.46666
346.5	238.666672
349.81	241.333328
353.12	245.066666
356.43	248.133331
359.75	256.266663
363.06	258.933319
366.37	265.466675
369.69	273
373	287.333344
376.32	317.666656
379.64	378.866669
382.96	483.666656
386.28	638.733337
389.59	842.733337
392.91	1090.466675
396.24	1376.800049
399.56	1696.333374
402.88	2053.93335
406.2	2455.06665
409.53	2902.399902
412.85	3419.06665
416.18	4010
419.5	4696.733398
422.83	5485.733398
426.16	6366.733398
429.48	7339.399902
432.81	8395.866211
436.14	9502.866211
439.47	10640.599609
442.8	11793.799805
446.13	12926
449.46	13981.933594
452.79	14927.533203
456.12	15738.933594
459.46	16458.132812
462.79	17109.066406
466.12	17700.599609
469.46	18277.867187
472.79	18870.066406
476.13	19505.199219
479.46	20242.132812
482.8	21039.933594
486.13	21833.199219
489.47	22551.666016
492.8	23191.267578
496.14	23828.132812
499.48	24580.400391
502.82	25475.666016
506.15	26530.933594
509.49	27771.132812
512.83	29157.533203
516.17	30693.533203
519.51	32390
522.85	34244.601562
526.19	36314.800781
529.53	38610.199219
532.87	41001.265625
536.21	43412.199219
539.55	45737.265625
542.89	47882.535156
546.23	49795.332031
549.57	51562.265625
552.91	53126
556.25	54544.265625
559.6	55829.132812
562.94	56957.867187
566.28	57977.132812
569.62	58905
572.96	59670.265625
576.3	60337.265625
579.65	60786.734375
582.99	61037.933594
586.33	61110.464844
589.67	61082.199219
593.01	60886.867187
596.36	60476.265625
599.7	59809.265625
603.04	58853.800781
606.38	57717.535156
609.72	56474.398437
613.07	55427.464844
616.41	54882.066406
619.75	55165.132812
623.09	56226.265625
626.43	57385.199219
629.77	58749.199219
633.11	60192.332031
636.45	61437.601562
639.79	62307
643.13	62292.066406
646.47	61494.332031
649.81	60089.132812
653.15	58018.398437
656.49	56225.867187
659.83	54988.332031
663.17	54162.867187
666.51	53593.535156
669.85	53188.464844
673.19	52862.667969
676.53	52523
679.86	52234.535156
683.2	52016.265625
686.54	51863.667969
689.87	51733.734375
693.21	51608.398437
696.55	51509.734375
699.88	51304.601562
703.22	51060.933594
706.55	50805.199219
709.88	50577.199219
713.22	50428.199219
716.55	50341.464844
719.88	50259.265625
723.22	50246.867187
726.55	50233.800781
729.88	50211.800781
733.21	50086.800781
736.54	49884.800781
739.87	49558.601562
743.2	49154.132812
746.53	48726.199219
749.86	48236.464844
753.18	47734.734375
756.51	47177.800781
759.84	46664.535156
763.16	46198.464844
766.49	45763.867187
769.81	45356.867187
773.13	44882.933594
776.46	44308.265625
779.78	43632.734375
783.1	42852.601562
786.42	41935.332031
789.74	40910.800781
793.06	39769
796.38	38541.933594
799.7	37310.398437
803.01	36067.265625
806.33	34847.199219
809.64	33639.265625
812.96	32416.666016
816.27	31255.066406
819.58	30144.867187
822.9	29064.333984
826.21	27962.132812
829.52	26851.267578
832.83	25707.666016
836.14	24553.466797
839.44	23394.800781
842.75	22246.466797
846.05	21109
849.36	20049.400391
852.66	19012.800781
855.97	18005.267578
859.27	17075.599609
862.57	16206.400391
865.87	15403.266602
869.17	14674.866211
872.46	13988.733398
875.76	13342.466797
879.06	12764.933594
882.35	12225.400391
885.64	11714.200195
888.94	11226.799805
892.23	10754.799805
895.52	10297.599609
898.81	9850.266602
902.09	9409.066406
905.38	8966.533203
908.67	8532.066406
911.95	8112.799805
915.23	7716
918.52	7346.666504
921.8	6998.200195
925.08	6667.866699
928.35	6341.399902
931.63	5989.066895
934.91	5606.666504
938.18	5214.066895
941.45	4846.933105
944.72	4546.200195
947.99	4297.466797
951.26	4091.93335
954.53	3901.199951
957.8	3714.06665
961.06	3533.466553
964.33	3363.600098
967.59	3204.800049
970.85	3057.93335
974.11	2927.800049
977.37	2805.06665
980.62	2677.93335
983.88	2553.06665
987.13	2417.266602
990.38	2283.466553
993.63	2147.06665
996.88	2011.866699
1000.13	1883.400024
1003.38	1760.599976
1006.62	1642.733276
1009.86	1534.800049
1013.1	1439.533325
1016.34	1348
1019.58	1266.400024
1022.82	1189.333374
1026.05	1115.133301
1029.29	1050.466675
1032.52	990.799988
1035.75	932.599976
1038.98	880
1042.2	832.599976
1045.43	786.93335
1048.65	744.266663
1051.87	708.200012
1055.09	672.266663
1058.31	639.466675
1061.53	604.266663
1064.74	577.666687
1067.95	555.599976
1071.16	534.466675
1074.37	511.333344
1077.58	492.399994
1080.79	473.466675
1083.99	457.866669
1087.19	442.866669
1090.39	428.399994
1093.59	418.333344
1096.78	408.666656
1099.98	403.200012
1103.17	402.333344
1106.36	405
1109.55	422.533325
1112.74	459.399994
1115.92	534
1119.1	656.599976
1122.28	846.400024
1125.46	1098.466675
1128.64	1365.266724
1131.81	1584.800049
1134.98	1714.133301
1138.16	1770.733276
1141.32	1791.133301
1144.49	1822.533325
CHECKSUM=^